SpectraSuite Data File
++++++++++++++++++++++++++++++++++++
Date: Wed Aug 16 16:07:25 BST 2017
User: username
Dark Spectrum Present: No
Reference Spectrum Present: No
Number of Sampled Component Spectra: 1
Spectrometers: HR4C5088
Integration Time (usec): 200000 (HR4C5088)
Spectra Averaged: 1 (HR4C5088)
Boxcar Smoothing: 0 (HR4C5088)
Correct for Electrical Dark: No (HR4C5088)
Strobe/Lamp Enabled: No (HR4C5088)
Correct for Detector Non-linearity: No (HR4C5088)
Correct for Stray Light: No (HR4C5088)
Number of Pixels in Processed Spectrum: 3648
>>>>>Begin Processed Spectral Data<<<<<
669.64	752.64
669.68	752.64
669.71	752.64
669.74	764.38
669.77	783.96
669.81	789.76
669.84	790.76
669.87	789.30
669.91	792.70
669.94	791.06
669.97	790.88
670.00	791.16
670.04	797.92
670.07	787.24
670.10	788.20
670.13	798.30
670.17	804.30
670.20	835.26
670.23	856.28
670.26	854.58
670.30	848.66
670.33	866.20
670.36	859.04
670.40	857.22
670.43	859.42
670.46	858.76
670.49	857.82
670.53	857.30
670.56	862.14
670.59	867.26
670.62	863.46
670.66	852.78
670.69	859.42
670.72	858.98
670.75	856.24
670.79	869.22
670.82	865.72
670.85	867.14
670.89	863.12
670.92	860.86
670.95	874.02
670.98	882.72
671.02	862.64
671.05	868.94
671.08	874.10
671.11	869.80
671.15	861.40
671.18	862.24
671.21	865.64
671.24	876.62
671.28	862.48
671.31	870.24
671.34	869.08
671.37	874.16
671.41	867.86
671.44	875.50
671.47	874.76
671.50	865.68
671.54	862.40
671.57	862.06
671.60	859.40
671.64	859.58
671.67	880.50
671.70	877.48
671.73	862.46
671.77	869.50
671.80	872.38
671.83	876.80
671.86	872.54
671.90	870.82
671.93	878.56
671.96	872.48
671.99	866.22
672.03	865.26
672.06	869.92
672.09	870.40
672.12	877.26
672.16	868.14
672.19	863.64
672.22	868.02
672.25	872.46
672.29	872.28
672.32	868.82
672.35	872.72
672.38	867.26
672.42	867.40
672.45	862.54
672.48	871.96
672.51	868.40
672.55	872.72
672.58	868.02
672.61	866.78
672.64	869.68
672.68	868.46
672.71	866.98
672.74	865.48
672.77	877.58
672.81	881.04
672.84	868.14
672.87	871.44
672.90	881.60
672.94	862.36
672.97	869.46
673.00	864.60
673.03	868.36
673.07	864.08
673.10	869.72
673.13	871.84
673.16	861.32
673.19	860.06
673.23	877.94
673.26	867.46
673.29	872.38
673.32	872.76
673.36	874.34
673.39	867.52
673.42	866.78
673.45	871.72
673.49	872.14
673.52	876.12
673.55	867.32
673.58	867.78
673.62	870.72
673.65	872.00
673.68	868.84
673.71	865.50
673.75	874.74
673.78	866.44
673.81	869.92
673.84	864.32
673.88	864.72
673.91	869.70
673.94	869.68
673.97	872.06
674.00	884.08
674.04	874.40
674.07	871.78
674.10	862.54
674.13	875.68
674.17	875.62
674.20	871.88
674.23	866.98
674.26	876.36
674.30	864.52
674.33	879.84
674.36	880.64
674.39	876.44
674.43	875.40
674.46	874.00
674.49	872.90
674.52	880.60
674.55	878.98
674.59	886.76
674.62	876.24
674.65	875.82
674.68	879.32
674.72	875.62
674.75	879.26
674.78	876.70
674.81	878.44
674.84	871.84
674.88	874.02
674.91	883.34
674.94	879.94
674.97	892.74
675.01	874.56
675.04	881.68
675.07	872.70
675.10	873.04
675.14	867.08
675.17	878.42
675.20	879.96
675.23	883.54
675.26	872.40
675.30	878.62
675.33	879.60
675.36	877.20
675.39	877.34
675.43	893.08
675.46	883.16
675.49	882.28
675.52	892.08
675.55	883.12
675.59	896.00
675.62	879.40
675.65	877.40
675.68	886.32
675.72	880.80
675.75	876.88
675.78	883.34
675.81	890.74
675.84	886.24
675.88	885.28
675.91	894.38
675.94	894.74
675.97	891.26
676.01	879.52
676.04	887.62
676.07	886.34
676.10	881.04
676.13	886.70
676.17	882.66
676.20	891.60
676.23	890.28
676.26	885.46
676.29	895.86
676.33	903.78
676.36	896.78
676.39	887.82
676.42	885.78
676.46	886.42
676.49	905.90
676.52	887.56
676.55	886.98
676.58	883.62
676.62	880.86
676.65	886.30
676.68	883.20
676.71	887.40
676.74	888.08
676.78	885.74
676.81	894.06
676.84	891.50
676.87	892.80
676.90	906.34
676.94	889.82
676.97	896.36
677.00	895.74
677.03	893.60
677.07	887.56
677.10	901.80
677.13	888.88
677.16	894.30
677.19	890.78
677.23	887.80
677.26	885.12
677.29	900.12
677.32	895.80
677.35	892.18
677.39	894.98
677.42	898.72
677.45	895.60
677.48	902.62
677.51	900.46
677.55	898.62
677.58	908.76
677.61	902.16
677.64	894.10
677.67	901.00
677.71	910.28
677.74	903.28
677.77	891.64
677.80	898.88
677.83	898.14
677.87	894.88
677.90	893.16
677.93	902.06
677.96	893.10
677.99	898.96
678.03	899.70
678.06	898.90
678.09	893.58
678.12	896.44
678.15	892.28
678.19	896.90
678.22	899.52
678.25	896.66
678.28	899.96
678.31	895.94
678.35	901.76
678.38	903.76
678.41	900.26
678.44	894.08
678.47	889.42
678.51	895.54
678.54	895.58
678.57	894.02
678.60	897.02
678.63	896.76
678.67	895.68
678.70	896.92
678.73	905.90
678.76	898.84
678.79	894.56
678.83	895.90
678.86	897.14
678.89	893.74
678.92	898.60
678.95	895.32
678.98	910.24
679.02	903.48
679.05	897.92
679.08	906.80
679.11	904.78
679.14	904.40
679.18	901.12
679.21	893.18
679.24	894.70
679.27	894.44
679.30	903.18
679.34	899.42
679.37	900.84
679.40	904.90
679.43	898.22
679.46	896.38
679.49	895.98
679.53	903.88
679.56	897.68
679.59	899.82
679.62	903.06
679.65	905.66
679.69	902.54
679.72	893.94
679.75	901.28
679.78	906.20
679.81	904.54
679.85	917.78
679.88	912.38
679.91	908.64
679.94	900.82
679.97	905.76
680.00	908.04
680.04	898.58
680.07	910.84
680.10	899.78
680.13	909.40
680.16	908.74
680.20	909.62
680.23	900.80
680.26	897.40
680.29	911.48
680.32	904.84
680.35	902.48
680.39	903.46
680.42	904.22
680.45	904.78
680.48	913.94
680.51	910.34
680.54	905.18
680.58	907.54
680.61	906.26
680.64	904.92
680.67	914.80
680.70	908.46
680.74	910.92
680.77	899.64
680.80	914.06
680.83	909.76
680.86	911.04
680.89	915.94
680.93	915.30
680.96	911.32
680.99	910.30
681.02	906.60
681.05	921.44
681.08	913.06
681.12	908.24
681.15	909.42
681.18	914.92
681.21	908.16
681.24	912.22
681.27	903.64
681.31	905.74
681.34	901.80
681.37	906.14
681.40	909.84
681.43	918.20
681.46	905.32
681.50	911.00
681.53	913.18
681.56	920.82
681.59	905.76
681.62	929.46
681.65	909.32
681.69	906.04
681.72	925.36
681.75	915.04
681.78	915.08
681.81	905.98
681.84	916.02
681.88	921.26
681.91	907.24
681.94	920.54
681.97	927.56
682.00	916.50
682.03	912.72
682.07	914.16
682.10	913.46
682.13	916.74
682.16	906.36
682.19	914.84
682.22	908.98
682.26	915.14
682.29	919.04
682.32	913.56
682.35	911.60
682.38	913.48
682.41	913.06
682.45	916.32
682.48	921.38
682.51	924.64
682.54	915.32
682.57	913.02
682.60	912.78
682.63	910.08
682.67	916.50
682.70	923.24
682.73	921.48
682.76	919.68
682.79	921.76
682.82	910.36
682.86	915.46
682.89	913.36
682.92	909.94
682.95	915.68
682.98	913.00
683.01	930.46
683.04	919.98
683.08	918.42
683.11	935.46
683.14	926.06
683.17	915.52
683.20	926.08
683.23	919.74
683.27	920.92
683.30	925.14
683.33	918.56
683.36	923.84
683.39	917.22
683.42	919.02
683.45	919.04
683.49	917.96
683.52	928.22
683.55	908.68
683.58	923.00
683.61	915.64
683.64	916.76
683.67	910.32
683.71	916.32
683.74	915.14
683.77	919.36
683.80	918.98
683.83	921.14
683.86	914.02
683.90	909.54
683.93	923.86
683.96	919.08
683.99	913.78
684.02	918.62
684.05	930.00
684.08	928.70
684.12	919.56
684.15	919.16
684.18	915.42
684.21	918.16
684.24	915.10
684.27	922.32
684.30	934.44
684.34	924.60
684.37	922.16
684.40	915.10
684.43	915.62
684.46	913.16
684.49	918.52
684.52	914.80
684.56	929.76
684.59	932.74
684.62	932.66
684.65	917.92
684.68	921.38
684.71	914.44
684.74	909.10
684.77	914.40
684.81	912.28
684.84	915.64
684.87	925.92
684.90	922.86
684.93	915.30
684.96	925.12
684.99	926.58
685.03	917.04
685.06	928.56
685.09	924.34
685.12	923.74
685.15	919.30
685.18	925.16
685.21	920.70
685.25	914.48
685.28	917.70
685.31	923.24
685.34	911.74
685.37	919.78
685.40	917.86
685.43	910.38
685.46	922.60
685.50	914.84
685.53	916.36
685.56	912.86
685.59	921.78
685.62	922.46
685.65	919.06
685.68	917.82
685.71	922.08
685.75	920.88
685.78	922.46
685.81	920.02
685.84	915.28
685.87	911.08
685.90	917.70
685.93	920.44
685.96	919.78
686.00	917.68
686.03	919.98
686.06	921.62
686.09	927.86
686.12	933.34
686.15	920.90
686.18	920.48
686.21	925.88
686.25	924.22
686.28	934.58
686.31	932.20
686.34	925.92
686.37	926.18
686.40	922.10
686.43	920.30
686.46	919.56
686.50	922.86
686.53	936.04
686.56	932.66
686.59	925.74
686.62	929.24
686.65	925.54
686.68	928.86
686.71	924.12
686.75	921.26
686.78	925.40
686.81	935.24
686.84	928.36
686.87	926.62
686.90	925.82
686.93	927.46
686.96	944.32
686.99	930.78
687.03	931.52
687.06	935.62
687.09	929.42
687.12	932.02
687.15	923.54
687.18	925.22
687.21	947.46
687.24	945.06
687.28	936.30
687.31	931.10
687.34	950.90
687.37	935.90
687.40	934.08
687.43	932.84
687.46	934.62
687.49	929.78
687.52	933.26
687.56	946.92
687.59	939.40
687.62	937.76
687.65	946.00
687.68	943.12
687.71	940.70
687.74	943.58
687.77	935.86
687.80	935.90
687.84	947.18
687.87	937.26
687.90	949.68
687.93	944.94
687.96	949.12
687.99	948.42
688.02	949.08
688.05	965.96
688.08	960.78
688.11	949.96
688.15	950.76
688.18	957.08
688.21	956.40
688.24	949.58
688.27	953.42
688.30	948.18
688.33	962.66
688.36	958.44
688.39	975.88
688.43	955.36
688.46	970.06
688.49	960.64
688.52	956.42
688.55	957.72
688.58	965.18
688.61	952.78
688.64	962.78
688.67	961.48
688.70	973.68
688.74	963.20
688.77	961.00
688.80	964.14
688.83	968.16
688.86	979.92
688.89	970.96
688.92	961.32
688.95	965.86
688.98	962.28
689.01	967.04
689.05	965.34
689.08	964.30
689.11	975.10
689.14	963.88
689.17	970.62
689.20	965.18
689.23	968.12
689.26	970.94
689.29	970.16
689.32	976.14
689.35	976.08
689.39	972.50
689.42	980.66
689.45	981.18
689.48	978.50
689.51	976.40
689.54	972.14
689.57	995.38
689.60	987.92
689.63	983.92
689.66	980.26
689.70	989.76
689.73	984.64
689.76	987.76
689.79	981.54
689.82	978.52
689.85	985.60
689.88	999.12
689.91	998.24
689.94	993.10
689.97	1000.44
690.00	986.46
690.03	987.54
690.07	997.06
690.10	1003.14
690.13	999.52
690.16	1013.06
690.19	1008.26
690.22	1014.54
690.25	1005.00
690.28	999.48
690.31	1007.36
690.34	1004.42
690.37	1001.86
690.41	1005.58
690.44	1013.12
690.47	1016.94
690.50	1006.44
690.53	1011.78
690.56	1015.36
690.59	1015.02
690.62	1015.84
690.65	1019.30
690.68	1026.88
690.71	1024.74
690.74	1026.90
690.78	1023.32
690.81	1038.00
690.84	1029.82
690.87	1038.24
690.90	1038.18
690.93	1053.44
690.96	1047.66
690.99	1051.98
691.02	1058.26
691.05	1059.84
691.08	1049.82
691.11	1062.16
691.14	1061.52
691.18	1075.96
691.21	1063.48
691.24	1069.84
691.27	1076.04
691.30	1093.62
691.33	1083.72
691.36	1089.08
691.39	1092.36
691.42	1096.00
691.45	1095.72
691.48	1102.70
691.51	1107.26
691.54	1113.30
691.58	1129.86
691.61	1122.00
691.64	1124.84
691.67	1143.02
691.70	1131.18
691.73	1147.36
691.76	1154.48
691.79	1161.00
691.82	1155.34
691.85	1165.18
691.88	1182.36
691.91	1185.14
691.94	1188.18
691.97	1194.22
692.01	1201.52
692.04	1219.00
692.07	1209.48
692.10	1216.34
692.13	1232.92
692.16	1238.80
692.19	1246.36
692.22	1262.24
692.25	1265.32
692.28	1270.94
692.31	1274.62
692.34	1299.56
692.37	1301.12
692.40	1318.04
692.43	1327.48
692.47	1341.54
692.50	1344.44
692.53	1371.48
692.56	1378.32
692.59	1388.80
692.62	1396.78
692.65	1419.58
692.68	1431.46
692.71	1463.18
692.74	1482.14
692.77	1499.32
692.80	1514.72
692.83	1553.02
692.86	1570.10
692.89	1610.28
692.92	1638.02
692.95	1682.18
692.99	1728.96
693.02	1766.84
693.05	1815.66
693.08	1875.62
693.11	1930.88
693.14	1993.20
693.17	2050.68
693.20	2141.58
693.23	2215.98
693.26	2310.10
693.29	2390.54
693.32	2509.62
693.35	2609.98
693.38	2744.22
693.41	2862.10
693.44	3025.44
693.47	3156.46
693.51	3351.24
693.54	3483.26
693.57	3687.54
693.60	3862.20
693.63	4064.22
693.66	4263.64
693.69	4477.80
693.72	4658.72
693.75	4894.38
693.78	5047.76
693.81	5231.96
693.84	5336.60
693.87	5519.04
693.90	5557.10
693.93	5651.02
693.96	5674.96
693.99	5718.32
694.02	5648.60
694.05	5689.82
694.09	5541.62
694.12	5496.74
694.15	5344.96
694.18	5283.86
694.21	5144.20
694.24	5100.32
694.27	4967.02
694.30	4915.58
694.33	4831.10
694.36	4778.02
694.39	4734.58
694.42	4749.52
694.45	4686.48
694.48	4761.92
694.51	4731.76
694.54	4807.20
694.57	4836.60
694.60	4899.00
694.63	4963.34
694.66	5093.54
694.69	5143.72
694.72	5307.08
694.76	5379.20
694.79	5552.94
694.82	5669.08
694.85	5880.38
694.88	6018.22
694.91	6211.90
694.94	6419.90
694.97	6662.32
695.00	6836.74
695.03	7149.26
695.06	7332.66
695.09	7598.22
695.12	7815.98
695.15	8127.16
695.18	8306.04
695.21	8576.38
695.24	8682.58
695.27	8898.62
695.30	8991.72
695.33	9172.74
695.36	9131.58
695.39	9216.06
695.42	9100.66
695.45	9082.60
695.48	8880.42
695.51	8682.58
695.55	8449.28
695.58	8251.68
695.61	7964.78
695.64	7695.10
695.67	7375.08
695.70	7130.96
695.73	6763.82
695.76	6525.66
695.79	6212.06
695.82	5947.40
695.85	5669.58
695.88	5438.48
695.91	5189.10
695.94	4981.46
695.97	4743.12
696.00	4560.50
696.03	4343.02
696.06	4223.96
696.09	4012.92
696.12	3921.28
696.15	3728.20
696.18	3647.48
696.21	3509.58
696.24	3409.54
696.27	3289.72
696.30	3226.40
696.33	3122.54
696.36	3056.96
696.39	2973.70
696.42	2922.82
696.45	2840.80
696.48	2810.44
696.51	2740.24
696.55	2720.66
696.58	2665.06
696.61	2638.04
696.64	2605.18
696.67	2548.64
696.70	2517.08
696.73	2507.02
696.76	2442.14
696.79	2429.36
696.82	2399.00
696.85	2370.80
696.88	2327.78
696.91	2325.90
696.94	2277.56
696.97	2264.12
697.00	2230.96
697.03	2215.58
697.06	2186.88
697.09	2169.24
697.12	2158.08
697.15	2144.56
697.18	2117.38
697.21	2107.78
697.24	2074.68
697.27	2074.74
697.30	2067.34
697.33	2069.10
697.36	2041.60
697.39	2020.76
697.42	2009.24
697.45	2015.04
697.48	1989.48
697.51	1999.50
697.54	1964.38
697.57	1969.56
697.60	1958.78
697.63	1956.82
697.66	1935.00
697.69	1940.52
697.72	1910.46
697.75	1910.94
697.78	1896.86
697.81	1894.64
697.84	1883.44
697.87	1891.28
697.90	1873.12
697.93	1879.10
697.96	1856.22
697.99	1873.24
698.02	1867.18
698.05	1860.60
698.08	1864.72
698.11	1869.30
698.14	1856.28
698.17	1879.44
698.20	1864.38
698.23	1885.70
698.26	1871.00
698.29	1892.62
698.32	1879.70
698.35	1910.24
698.38	1893.70
698.41	1919.10
698.44	1895.52
698.48	1925.26
698.51	1928.52
698.54	1937.82
698.57	1943.80
698.60	1968.34
698.63	1958.94
698.66	1977.10
698.69	1997.90
698.72	2005.50
698.75	1997.80
698.78	2047.96
698.81	2028.10
698.84	2040.66
698.87	2044.94
698.90	2043.24
698.93	2056.58
698.96	2060.84
698.99	2069.64
699.02	2056.68
699.05	2047.92
699.08	2064.78
699.11	2061.04
699.14	2048.60
699.17	2052.72
699.20	2056.06
699.23	2037.16
699.26	2042.44
699.29	2021.94
699.32	2033.86
699.35	2020.76
699.38	2028.16
699.41	2019.28
699.44	2016.38
699.47	1997.46
699.50	2011.54
699.53	1990.44
699.56	2001.96
699.59	1990.64
699.62	1995.64
699.65	1979.48
699.68	1983.88
699.71	1957.28
699.73	1965.88
699.76	1959.60
699.79	1942.90
699.82	1933.10
699.85	1938.50
699.88	1926.10
699.91	1914.40
699.94	1905.10
699.97	1902.40
700.00	1885.16
700.03	1892.24
700.06	1882.90
700.09	1880.68
700.12	1880.24
700.15	1894.82
700.18	1868.56
700.21	1888.48
700.24	1878.32
700.27	1887.98
700.30	1879.88
700.33	1871.00
700.36	1886.12
700.39	1893.20
700.42	1887.44
700.45	1907.14
700.48	1904.32
700.51	1929.80
700.54	1938.92
700.57	1952.92
700.60	1962.26
700.63	1995.36
700.66	2008.96
700.69	2028.72
700.72	2026.78
700.75	2058.70
700.78	2077.56
700.81	2104.60
700.84	2105.96
700.87	2139.42
700.90	2136.30
700.93	2155.82
700.96	2148.88
700.99	2170.92
701.02	2160.28
701.05	2166.36
701.08	2155.42
701.11	2164.08
701.14	2157.94
701.17	2141.56
701.20	2150.76
701.23	2148.42
701.26	2109.08
701.29	2103.08
701.32	2094.70
701.35	2081.34
701.38	2062.84
701.41	2062.20
701.44	2048.72
701.47	2035.40
701.50	2013.78
701.53	2020.28
701.56	2017.08
701.59	2005.10
701.62	1985.22
701.64	1984.08
701.67	1973.34
701.70	1974.58
701.73	1961.68
701.76	1955.74
701.79	1934.56
701.82	1939.98
701.85	1944.14
701.88	1950.84
701.91	1939.56
701.94	1942.58
701.97	1934.24
702.00	1966.02
702.03	1961.36
702.06	1977.44
702.09	1973.08
702.12	1982.20
702.15	1995.04
702.18	2017.16
702.21	2007.84
702.24	2039.54
702.27	2054.08
702.30	2078.42
702.33	2083.90
702.36	2120.56
702.39	2121.08
702.42	2158.98
702.45	2184.52
702.48	2208.30
702.51	2223.44
702.54	2246.80
702.57	2263.76
702.60	2321.90
702.62	2326.82
702.65	2372.18
702.68	2377.80
702.71	2417.28
702.74	2453.66
702.77	2469.08
702.80	2498.56
702.83	2521.78
702.86	2498.32
702.89	2544.40
702.92	2538.42
702.95	2556.86
702.98	2545.36
703.01	2551.72
703.04	2526.58
703.07	2508.16
703.10	2476.08
703.13	2485.92
703.16	2429.86
703.19	2412.86
703.22	2380.76
703.25	2336.40
703.28	2291.24
703.31	2263.28
703.34	2227.68
703.37	2188.40
703.39	2144.50
703.42	2115.36
703.45	2068.36
703.48	2055.92
703.51	2011.60
703.54	1984.56
703.57	1945.84
703.60	1925.38
703.63	1883.66
703.66	1869.26
703.69	1839.28
703.72	1827.10
703.75	1806.00
703.78	1785.88
703.81	1762.44
703.84	1758.54
703.87	1743.56
703.90	1735.34
703.93	1712.02
703.96	1717.06
703.99	1697.56
704.02	1674.26
704.04	1673.80
704.07	1673.52
704.10	1671.14
704.13	1649.16
704.16	1655.12
704.19	1651.60
704.22	1645.48
704.25	1659.76
704.28	1631.52
704.31	1647.42
704.34	1632.08
704.37	1643.48
704.40	1637.74
704.43	1637.02
704.46	1636.94
704.49	1639.08
704.52	1642.82
704.55	1643.74
704.58	1650.92
704.60	1653.96
704.63	1658.06
704.66	1658.36
704.69	1650.60
704.72	1675.56
704.75	1671.42
704.78	1675.04
704.81	1685.14
704.84	1692.64
704.87	1688.02
704.90	1696.76
704.93	1703.30
704.96	1714.72
704.99	1702.36
705.02	1706.34
705.05	1722.00
705.08	1724.18
705.10	1725.84
705.13	1753.90
705.16	1732.22
705.19	1753.26
705.22	1739.14
705.25	1756.04
705.28	1780.28
705.31	1773.24
705.34	1779.66
705.37	1788.76
705.40	1780.50
705.43	1794.32
705.46	1789.98
705.49	1814.80
705.52	1809.90
705.55	1820.04
705.57	1825.92
705.60	1837.30
705.63	1829.12
705.66	1850.42
705.69	1846.86
705.72	1863.88
705.75	1863.80
705.78	1888.10
705.81	1874.92
705.84	1895.28
705.87	1894.92
705.90	1917.88
705.93	1913.80
705.96	1927.42
705.99	1930.14
706.01	1956.52
706.04	1963.48
706.07	1970.92
706.10	1968.32
706.13	1994.46
706.16	2005.58
706.19	2007.32
706.22	2007.32
706.25	2018.78
706.28	2022.42
706.31	2032.50
706.34	2023.72
706.37	2056.38
706.40	2027.22
706.42	2051.16
706.45	2039.68
706.48	2054.42
706.51	2048.90
706.54	2056.20
706.57	2030.06
706.60	2037.18
706.63	2014.02
706.66	2028.52
706.69	2000.54
706.72	2011.76
706.75	1991.92
706.78	1988.48
706.81	1974.28
706.83	1976.60
706.86	1945.58
706.89	1947.88
706.92	1929.16
706.95	1928.58
706.98	1916.76
707.01	1898.34
707.04	1893.40
707.07	1875.86
707.10	1859.42
707.13	1847.22
707.16	1835.18
707.18	1837.04
707.21	1819.46
707.24	1801.82
707.27	1792.68
707.30	1794.14
707.33	1767.22
707.36	1776.62
707.39	1765.86
707.42	1757.74
707.45	1746.16
707.48	1745.16
707.51	1734.38
707.53	1731.40
707.56	1723.14
707.59	1718.00
707.62	1706.14
707.65	1715.66
707.68	1695.62
707.71	1697.86
707.74	1689.18
707.77	1692.62
707.80	1687.36
707.83	1681.10
707.86	1678.64
707.88	1664.20
707.91	1670.74
707.94	1676.76
707.97	1681.62
708.00	1674.78
708.03	1662.54
708.06	1673.30
708.09	1668.72
708.12	1676.26
708.15	1649.12
708.18	1674.56
708.20	1649.36
708.23	1654.64
708.26	1638.28
708.29	1651.46
708.32	1649.76
708.35	1641.50
708.38	1651.04
708.41	1646.62
708.44	1639.70
708.47	1648.76
708.50	1637.32
708.52	1642.08
708.55	1641.42
708.58	1629.32
708.61	1628.68
708.64	1630.74
708.67	1621.74
708.70	1623.30
708.73	1609.86
708.76	1615.12
708.79	1633.00
708.81	1623.42
708.84	1607.44
708.87	1602.76
708.90	1603.50
708.93	1602.54
708.96	1590.32
708.99	1603.22
709.02	1589.32
709.05	1593.22
709.08	1576.82
709.10	1575.76
709.13	1571.62
709.16	1575.66
709.19	1562.56
709.22	1571.04
709.25	1560.82
709.28	1562.42
709.31	1558.58
709.34	1553.12
709.37	1541.22
709.39	1553.32
709.42	1545.10
709.45	1533.86
709.48	1525.78
709.51	1538.34
709.54	1528.18
709.57	1541.46
709.60	1519.44
709.63	1535.90
709.66	1531.20
709.68	1522.46
709.71	1518.46
709.74	1516.84
709.77	1514.66
709.80	1511.14
709.83	1506.64
709.86	1519.18
709.89	1500.48
709.92	1513.92
709.94	1506.78
709.97	1503.78
710.00	1495.72
710.03	1514.66
710.06	1496.28
710.09	1494.36
710.12	1489.16
710.15	1484.84
710.18	1488.84
710.20	1490.34
710.23	1475.14
710.26	1475.86
710.29	1472.78
710.32	1467.14
710.35	1470.14
710.38	1468.20
710.41	1476.92
710.44	1474.60
710.46	1455.78
710.49	1464.18
710.52	1465.46
710.55	1451.76
710.58	1456.86
710.61	1449.22
710.64	1446.44
710.67	1455.54
710.69	1454.42
710.72	1461.42
710.75	1443.02
710.78	1438.82
710.81	1430.32
710.84	1438.52
710.87	1435.00
710.90	1443.32
710.93	1428.12
710.95	1428.80
710.98	1431.82
711.01	1422.26
711.04	1420.24
711.07	1417.78
711.10	1422.70
711.13	1413.72
711.16	1415.62
711.18	1406.86
711.21	1401.86
711.24	1404.94
711.27	1405.86
711.30	1404.58
711.33	1396.56
711.36	1398.04
711.39	1403.74
711.41	1402.20
711.44	1395.70
711.47	1385.88
711.50	1394.68
711.53	1395.44
711.56	1395.08
711.59	1393.82
711.62	1377.84
711.64	1389.10
711.67	1388.34
711.70	1388.38
711.73	1379.74
711.76	1375.16
711.79	1387.76
711.82	1387.70
711.85	1386.56
711.87	1380.32
711.90	1379.84
711.93	1383.66
711.96	1379.12
711.99	1375.38
712.02	1380.34
712.05	1372.80
712.08	1376.14
712.10	1374.68
712.13	1369.84
712.16	1387.88
712.19	1374.08
712.22	1375.34
712.25	1377.76
712.28	1381.94
712.30	1375.18
712.33	1389.52
712.36	1380.22
712.39	1377.14
712.42	1365.12
712.45	1373.52
712.48	1373.42
712.50	1376.70
712.53	1365.86
712.56	1385.02
712.59	1373.04
712.62	1380.10
712.65	1379.58
712.68	1377.98
712.71	1382.98
712.73	1375.96
712.76	1377.34
712.79	1388.22
712.82	1376.66
712.85	1382.30
712.88	1379.52
712.91	1387.74
712.93	1385.52
712.96	1378.62
712.99	1381.18
713.02	1384.64
713.05	1384.18
713.08	1371.98
713.11	1375.46
713.13	1384.52
713.16	1372.54
713.19	1383.60
713.22	1372.96
713.25	1392.82
713.28	1377.04
713.31	1383.90
713.33	1383.46
713.36	1408.12
713.39	1389.10
713.42	1401.06
713.45	1383.70
713.48	1395.00
713.51	1384.30
713.53	1396.46
713.56	1387.46
713.59	1390.20
713.62	1405.88
713.65	1405.06
713.68	1398.78
713.71	1395.38
713.73	1401.70
713.76	1394.88
713.79	1398.18
713.82	1396.76
713.85	1396.46
713.88	1409.48
713.90	1395.20
713.93	1403.44
713.96	1394.10
713.99	1402.96
714.02	1404.76
714.05	1419.28
714.08	1399.14
714.10	1417.06
714.13	1416.80
714.16	1417.88
714.19	1400.94
714.22	1412.68
714.25	1411.98
714.27	1427.42
714.30	1414.78
714.33	1413.72
714.36	1410.46
714.39	1422.22
714.42	1414.78
714.45	1433.12
714.47	1417.78
714.50	1418.04
714.53	1414.66
714.56	1426.38
714.59	1423.98
714.62	1433.96
714.64	1432.72
714.67	1440.44
714.70	1428.74
714.73	1426.96
714.76	1428.26
714.79	1433.20
714.81	1415.70
714.84	1424.92
714.87	1424.04
714.90	1422.60
714.93	1420.96
714.96	1419.08
714.99	1431.20
715.01	1432.42
715.04	1427.44
715.07	1433.24
715.10	1424.70
715.13	1438.70
715.16	1427.90
715.18	1430.92
715.21	1424.38
715.24	1429.12
715.27	1431.48
715.30	1430.46
715.33	1418.74
715.35	1428.62
715.38	1420.58
715.41	1435.84
715.44	1416.90
715.47	1424.04
715.50	1423.02
715.52	1419.90
715.55	1425.08
715.58	1422.86
715.61	1420.08
715.64	1426.34
715.67	1427.26
715.69	1420.86
715.72	1419.54
715.75	1435.62
715.78	1425.22
715.81	1419.06
715.84	1413.34
715.86	1425.00
715.89	1429.68
715.92	1428.84
715.95	1424.30
715.98	1436.48
716.00	1413.16
716.03	1427.38
716.06	1416.44
716.09	1420.32
716.12	1433.24
716.15	1431.16
716.17	1431.16
716.20	1434.96
716.23	1421.00
716.26	1425.70
716.29	1433.98
716.32	1422.96
716.34	1429.30
716.37	1422.00
716.40	1429.94
716.43	1421.00
716.46	1416.92
716.48	1430.22
716.51	1425.10
716.54	1429.88
716.57	1432.34
716.60	1420.00
716.63	1412.62
716.65	1433.38
716.68	1414.70
716.71	1417.48
716.74	1419.00
716.77	1432.08
716.80	1408.10
716.82	1411.82
716.85	1404.90
716.88	1404.74
716.91	1409.44
716.94	1411.00
716.96	1403.30
716.99	1412.82
717.02	1396.64
717.05	1402.56
717.08	1400.96
717.11	1406.20
717.13	1399.02
717.16	1408.02
717.19	1391.62
717.22	1407.80
717.25	1392.66
717.27	1397.36
717.30	1403.36
717.33	1404.96
717.36	1404.48
717.39	1407.34
717.41	1408.90
717.44	1400.16
717.47	1394.54
717.50	1397.68
717.53	1380.38
717.56	1392.94
717.58	1400.22
717.61	1397.40
717.64	1396.62
717.67	1398.20
717.70	1398.80
717.72	1389.10
717.75	1390.64
717.78	1396.58
717.81	1399.00
717.84	1403.08
717.86	1403.78
717.89	1401.14
717.92	1405.22
717.95	1404.02
717.98	1392.78
718.00	1408.52
718.03	1398.34
718.06	1403.04
718.09	1396.68
718.12	1399.96
718.14	1407.10
718.17	1408.88
718.20	1405.26
718.23	1410.18
718.26	1406.48
718.28	1411.22
718.31	1409.90
718.34	1405.08
718.37	1402.34
718.40	1422.72
718.42	1411.78
718.45	1412.68
718.48	1410.34
718.51	1409.28
718.54	1416.00
718.56	1408.46
718.59	1412.46
718.62	1418.32
718.65	1406.52
718.68	1421.06
718.70	1417.98
718.73	1428.22
718.76	1420.66
718.79	1433.72
718.82	1419.24
718.84	1419.72
718.87	1407.90
718.90	1432.66
718.93	1427.42
718.96	1412.86
718.98	1433.70
719.01	1427.90
719.04	1413.36
719.07	1407.18
719.10	1409.98
719.12	1407.08
719.15	1402.74
719.18	1414.82
719.21	1400.86
719.24	1400.24
719.26	1404.82
719.29	1402.56
719.32	1397.30
719.35	1412.08
719.38	1397.58
719.40	1397.44
719.43	1396.14
719.46	1394.26
719.49	1389.36
719.52	1391.44
719.54	1384.26
719.57	1389.14
719.60	1392.68
719.63	1395.68
719.65	1383.10
719.68	1399.58
719.71	1383.94
719.74	1384.56
719.77	1376.52
719.79	1380.40
719.82	1379.44
719.85	1378.92
719.88	1369.94
719.91	1382.86
719.93	1371.56
719.96	1372.86
719.99	1363.64
720.02	1377.32
720.04	1362.38
720.07	1363.28
720.10	1372.32
720.13	1366.70
720.16	1369.68
720.18	1369.68
720.21	1376.46
720.24	1367.10
720.27	1361.84
720.29	1370.36
720.32	1360.80
720.35	1372.26
720.38	1359.14
720.41	1375.00
720.43	1360.12
720.46	1363.38
720.49	1357.14
720.52	1363.58
720.55	1365.32
720.57	1372.30
720.60	1353.10
720.63	1360.40
720.66	1351.46
720.68	1367.48
720.71	1366.40
720.74	1353.76
720.77	1361.88
720.79	1368.26
720.82	1347.70
720.85	1362.08
720.88	1363.72
720.91	1365.96
720.93	1353.18
720.96	1362.78
720.99	1369.72
721.02	1356.32
721.04	1356.74
721.07	1352.38
721.10	1350.28
721.13	1352.46
721.16	1345.22
721.18	1351.08
721.21	1348.80
721.24	1354.14
721.27	1347.70
721.29	1350.28
721.32	1349.52
721.35	1348.16
721.38	1355.64
721.40	1351.48
721.43	1349.00
721.46	1359.64
721.49	1370.06
721.52	1346.46
721.54	1346.12
721.57	1344.12
721.60	1337.86
721.63	1338.12
721.65	1343.20
721.68	1341.84
721.71	1328.70
721.74	1346.64
721.76	1340.00
721.79	1347.38
721.82	1340.32
721.85	1337.32
721.88	1329.82
721.90	1342.92
721.93	1342.10
721.96	1345.90
721.99	1324.16
722.01	1323.68
722.04	1327.22
722.07	1330.08
722.10	1326.46
722.12	1319.78
722.15	1323.00
722.18	1319.00
722.21	1317.36
722.23	1329.22
722.26	1314.42
722.29	1311.72
722.32	1313.62
722.34	1305.34
722.37	1305.22
722.40	1300.80
722.43	1308.88
722.45	1309.94
722.48	1301.70
722.51	1298.56
722.54	1290.68
722.57	1309.56
722.59	1295.84
722.62	1312.22
722.65	1291.82
722.68	1300.58
722.70	1285.62
722.73	1293.14
722.76	1291.26
722.79	1283.38
722.81	1279.00
722.84	1283.60
722.87	1276.78
722.90	1280.16
722.92	1274.86
722.95	1281.48
722.98	1268.34
723.01	1276.08
723.03	1263.68
723.06	1264.74
723.09	1261.32
723.12	1263.00
723.14	1255.16
723.17	1264.42
723.20	1247.94
723.23	1252.50
723.25	1251.28
723.28	1260.62
723.31	1257.00
723.34	1240.96
723.36	1244.56
723.39	1245.14
723.42	1241.78
723.45	1249.40
723.47	1240.78
723.50	1240.94
723.53	1232.44
723.56	1243.00
723.58	1233.60
723.61	1235.76
723.64	1231.74
723.67	1238.94
723.69	1240.54
723.72	1234.76
723.75	1224.52
723.77	1229.36
723.80	1222.62
723.83	1229.22
723.86	1231.76
723.88	1222.18
723.91	1217.52
723.94	1213.82
723.97	1216.30
723.99	1220.02
724.02	1221.34
724.05	1214.06
724.08	1210.34
724.10	1207.22
724.13	1195.22
724.16	1213.08
724.19	1208.64
724.21	1205.26
724.24	1202.90
724.27	1198.36
724.30	1204.88
724.32	1213.54
724.35	1215.40
724.38	1204.62
724.40	1199.12
724.43	1203.32
724.46	1195.64
724.49	1196.30
724.51	1196.00
724.54	1196.42
724.57	1195.92
724.60	1199.74
724.62	1197.38
724.65	1187.60
724.68	1195.54
724.71	1196.80
724.73	1194.46
724.76	1188.36
724.79	1183.24
724.81	1194.00
724.84	1183.46
724.87	1189.78
724.90	1179.90
724.92	1185.52
724.95	1174.08
724.98	1185.84
725.01	1182.38
725.03	1177.54
725.06	1172.06
725.09	1183.04
725.12	1174.42
725.14	1173.62
725.17	1166.32
725.20	1180.22
725.22	1176.40
725.25	1175.74
725.28	1161.42
725.31	1171.28
725.33	1186.26
725.36	1182.08
725.39	1166.36
725.42	1178.32
725.44	1169.68
725.47	1174.78
725.50	1178.18
725.52	1172.90
725.55	1174.96
725.58	1175.74
725.61	1178.38
725.63	1162.50
725.66	1168.14
725.69	1167.98
725.71	1163.92
725.74	1171.68
725.77	1163.02
725.80	1165.76
725.82	1169.32
725.85	1164.42
725.88	1161.86
725.90	1165.08
725.93	1158.22
725.96	1181.60
725.99	1157.82
726.01	1166.42
726.04	1159.92
726.07	1164.02
726.10	1162.00
726.12	1151.02
726.15	1152.14
726.18	1149.36
726.20	1165.18
726.23	1161.86
726.26	1164.40
726.29	1160.78
726.31	1155.48
726.34	1159.56
726.37	1143.02
726.39	1158.50
726.42	1153.18
726.45	1158.24
726.48	1152.60
726.50	1164.90
726.53	1159.18
726.56	1158.10
726.58	1145.94
726.61	1152.44
726.64	1145.86
726.67	1151.40
726.69	1146.82
726.72	1147.88
726.75	1148.54
726.77	1153.74
726.80	1146.04
726.83	1155.26
726.85	1147.00
726.88	1139.32
726.91	1143.94
726.94	1145.58
726.96	1141.32
726.99	1154.62
727.02	1138.58
727.04	1144.58
727.07	1137.82
727.10	1139.84
727.13	1133.80
727.15	1133.76
727.18	1135.74
727.21	1142.70
727.23	1130.18
727.26	1139.08
727.29	1137.90
727.31	1142.76
727.34	1143.48
727.37	1148.84
727.40	1144.26
727.42	1138.86
727.45	1133.58
727.48	1132.04
727.50	1139.44
727.53	1140.34
727.56	1135.60
727.58	1137.06
727.61	1133.38
727.64	1130.54
727.67	1127.74
727.69	1140.28
727.72	1128.78
727.75	1127.70
727.77	1134.62
727.80	1134.68
727.83	1134.42
727.85	1128.62
727.88	1146.80
727.91	1140.58
727.94	1134.66
727.96	1137.20
727.99	1130.38
728.02	1135.06
728.04	1132.22
728.07	1132.58
728.10	1122.50
728.12	1128.58
728.15	1133.96
728.18	1129.90
728.21	1130.76
728.23	1138.86
728.26	1135.76
728.29	1134.76
728.31	1126.48
728.34	1141.10
728.37	1129.50
728.39	1139.40
728.42	1128.78
728.45	1136.48
728.47	1128.34
728.50	1128.08
728.53	1127.76
728.56	1138.04
728.58	1136.36
728.61	1129.62
728.64	1124.42
728.66	1140.02
728.69	1131.14
728.72	1133.30
728.74	1123.32
728.77	1134.20
728.80	1131.68
728.82	1127.90
728.85	1132.94
728.88	1136.24
728.90	1128.70
728.93	1127.38
728.96	1124.82
728.99	1134.08
729.01	1124.48
729.04	1128.76
729.07	1136.40
729.09	1130.04
729.12	1128.00
729.15	1135.30
729.17	1129.20
729.20	1138.52
729.23	1126.98
729.25	1134.60
729.28	1137.26
729.31	1133.60
729.33	1123.88
729.36	1125.26
729.39	1127.38
729.41	1132.12
729.44	1131.94
729.47	1131.48
729.49	1124.02
729.52	1132.70
729.55	1132.22
729.57	1121.78
729.60	1125.48
729.63	1143.26
729.66	1124.64
729.68	1119.96
729.71	1118.04
729.74	1128.12
729.76	1128.64
729.79	1121.34
729.82	1117.38
729.84	1122.32
729.87	1129.74
729.90	1121.62
729.92	1124.62
729.95	1124.34
729.98	1120.56
730.00	1124.80
730.03	1120.84
730.06	1122.82
730.08	1127.60
730.11	1122.32
730.14	1126.42
730.16	1129.76
730.19	1117.04
730.22	1115.22
730.24	1112.40
730.27	1117.86
730.30	1124.64
730.32	1119.86
730.35	1129.36
730.38	1123.62
730.40	1116.58
730.43	1118.40
730.46	1123.16
730.48	1120.78
730.51	1125.90
730.54	1122.82
730.56	1117.62
730.59	1122.76
730.62	1120.28
730.64	1111.36
730.67	1110.66
730.70	1123.42
730.72	1114.44
730.75	1111.34
730.78	1123.44
730.80	1118.74
730.83	1115.10
730.86	1118.16
730.88	1122.32
730.91	1124.66
730.94	1118.08
730.96	1118.90
730.99	1124.28
731.02	1127.68
731.04	1116.56
731.07	1114.42
731.10	1133.88
731.12	1128.18
731.15	1117.08
731.18	1113.62
731.20	1109.68
731.23	1117.04
731.26	1110.08
731.28	1128.20
731.31	1105.98
731.34	1121.26
731.36	1123.46
731.39	1119.94
731.42	1114.66
731.44	1119.88
731.47	1117.70
731.50	1123.42
731.52	1121.12
731.55	1113.76
731.57	1113.14
731.60	1118.66
731.63	1106.62
731.65	1112.06
731.68	1130.30
731.71	1115.98
731.73	1115.06
731.76	1114.66
731.79	1126.94
731.81	1122.06
731.84	1119.58
731.87	1126.42
731.89	1111.54
731.92	1120.50
731.95	1115.92
731.97	1116.68
732.00	1117.68
732.03	1119.56
732.05	1123.32
732.08	1118.70
732.11	1130.72
732.13	1132.18
732.16	1124.28
732.18	1128.72
732.21	1127.10
732.24	1127.82
732.26	1125.82
732.29	1131.72
732.32	1117.52
732.34	1121.86
732.37	1115.36
732.40	1125.10
732.42	1124.06
732.45	1119.46
732.48	1119.70
732.50	1125.42
732.53	1122.08
732.55	1126.44
732.58	1116.88
732.61	1129.78
732.63	1117.90
732.66	1123.48
732.69	1125.10
732.71	1116.94
732.74	1126.82
732.77	1118.72
732.79	1122.02
732.82	1128.76
732.85	1118.42
732.87	1123.36
732.90	1122.02
732.92	1124.50
732.95	1117.40
732.98	1121.50
733.00	1134.04
733.03	1119.22
733.06	1121.24
733.08	1118.20
733.11	1122.48
733.14	1125.12
733.16	1123.86
733.19	1131.40
733.21	1120.54
733.24	1132.06
733.27	1132.78
733.29	1123.96
733.32	1120.68
733.35	1124.86
733.37	1123.86
733.40	1116.74
733.43	1116.42
733.45	1127.58
733.48	1128.38
733.50	1130.62
733.53	1126.56
733.56	1135.16
733.58	1122.50
733.61	1117.14
733.64	1109.36
733.66	1122.00
733.69	1122.68
733.72	1126.16
733.74	1117.18
733.77	1120.26
733.79	1112.28
733.82	1120.58
733.85	1117.82
733.87	1123.72
733.90	1122.24
733.93	1113.32
733.95	1118.50
733.98	1131.52
734.00	1123.50
734.03	1123.82
734.06	1121.96
734.08	1120.42
734.11	1127.28
734.14	1121.78
734.16	1107.20
734.19	1114.82
734.21	1119.42
734.24	1118.64
734.27	1114.72
734.29	1117.04
734.32	1116.30
734.35	1120.18
734.37	1112.48
734.40	1114.68
734.42	1107.64
734.45	1115.32
734.48	1116.18
734.50	1119.94
734.53	1113.66
734.56	1107.20
734.58	1102.86
734.61	1117.58
734.63	1112.80
734.66	1107.62
734.69	1106.38
734.71	1112.48
734.74	1107.04
734.76	1105.44
734.79	1101.06
734.82	1100.64
734.84	1113.96
734.87	1114.52
734.90	1107.48
734.92	1097.48
734.95	1100.30
734.97	1100.08
735.00	1103.74
735.03	1110.78
735.05	1096.60
735.08	1112.68
735.10	1103.54
735.13	1101.72
735.16	1102.46
735.18	1112.38
735.21	1100.84
735.24	1096.26
735.26	1096.22
735.29	1102.82
735.31	1097.80
735.34	1100.72
735.37	1102.98
735.39	1103.52
735.42	1101.32
735.44	1097.48
735.47	1095.70
735.50	1103.54
735.52	1093.12
735.55	1096.98
735.57	1093.96
735.60	1092.96
735.63	1091.80
735.65	1100.04
735.68	1097.38
735.71	1091.56
735.73	1085.42
735.76	1093.94
735.78	1104.36
735.81	1089.34
735.84	1083.70
735.86	1098.22
735.89	1089.46
735.91	1090.98
735.94	1093.14
735.97	1100.18
735.99	1097.22
736.02	1083.82
736.04	1104.56
736.07	1091.40
736.10	1089.42
736.12	1085.42
736.15	1090.56
736.17	1093.30
736.20	1086.96
736.23	1080.44
736.25	1083.58
736.28	1088.48
736.30	1088.06
736.33	1087.46
736.36	1078.38
736.38	1091.66
736.41	1091.36
736.43	1083.34
736.46	1081.26
736.49	1079.42
736.51	1079.30
736.54	1082.66
736.56	1077.62
736.59	1080.32
736.62	1087.60
736.64	1081.90
736.67	1081.44
736.69	1072.62
736.72	1071.54
736.75	1076.88
736.77	1079.78
736.80	1083.22
736.82	1080.76
736.85	1078.56
736.88	1077.46
736.90	1084.02
736.93	1083.44
736.95	1074.04
736.98	1074.52
737.01	1076.16
737.03	1081.44
737.06	1079.16
737.08	1080.10
737.11	1073.26
737.13	1087.30
737.16	1079.02
737.19	1071.40
737.21	1073.40
737.24	1075.54
737.26	1079.42
737.29	1079.70
737.32	1085.72
737.34	1080.72
737.37	1069.42
737.39	1071.50
737.42	1067.70
737.45	1061.46
737.47	1069.94
737.50	1073.24
737.52	1095.10
737.55	1066.88
737.57	1065.06
737.60	1058.24
737.63	1068.56
737.65	1070.24
737.68	1067.08
737.70	1063.52
737.73	1067.74
737.76	1068.46
737.78	1070.18
737.81	1069.10
737.83	1065.66
737.86	1071.56
737.88	1061.10
737.91	1058.18
737.94	1063.56
737.96	1072.90
737.99	1070.98
738.01	1060.84
738.04	1061.62
738.07	1063.30
738.09	1069.36
738.12	1065.92
738.14	1074.68
738.17	1059.70
738.19	1056.20
738.22	1064.52
738.25	1056.94
738.27	1052.18
738.30	1061.26
738.32	1063.12
738.35	1050.34
738.37	1058.94
738.40	1067.14
738.43	1055.84
738.45	1057.22
738.48	1058.28
738.50	1053.36
738.53	1055.94
738.55	1064.56
738.58	1052.74
738.61	1055.48
738.63	1050.90
738.66	1049.08
738.68	1051.88
738.71	1065.80
738.73	1052.24
738.76	1071.50
738.79	1059.58
738.81	1061.46
738.84	1058.34
738.86	1062.06
738.89	1058.22
738.91	1052.84
738.94	1059.18
738.97	1051.44
738.99	1051.70
739.02	1059.86
739.04	1053.52
739.07	1051.20
739.09	1050.10
739.12	1047.62
739.15	1044.88
739.17	1052.32
739.20	1053.02
739.22	1047.46
739.25	1058.50
739.27	1058.28
739.30	1050.86
739.33	1056.02
739.35	1048.48
739.38	1050.50
739.40	1048.62
739.43	1051.24
739.45	1052.98
739.48	1053.66
739.50	1053.92
739.53	1053.30
739.56	1048.02
739.58	1053.96
739.61	1044.60
739.63	1053.86
739.66	1050.36
739.68	1056.28
739.71	1052.48
739.73	1045.28
739.76	1045.68
739.79	1046.60
739.81	1052.82
739.84	1047.92
739.86	1053.78
739.89	1050.18
739.91	1047.72
739.94	1048.92
739.97	1039.48
739.99	1048.62
740.02	1048.64
740.04	1048.82
740.07	1048.44
740.09	1056.80
740.12	1048.14
740.14	1057.44
740.17	1051.18
740.20	1050.50
740.22	1054.98
740.25	1054.70
740.27	1052.56
740.30	1045.66
740.32	1045.44
740.35	1048.04
740.37	1050.48
740.40	1045.48
740.42	1044.04
740.45	1051.34
740.48	1044.50
740.50	1051.34
740.53	1060.54
740.55	1056.40
740.58	1057.82
740.60	1057.94
740.63	1052.40
740.65	1052.58
740.68	1053.78
740.71	1049.34
740.73	1051.50
740.76	1056.28
740.78	1047.72
740.81	1051.02
740.83	1056.32
740.86	1053.82
740.88	1054.82
740.91	1061.78
740.93	1053.88
740.96	1056.62
740.99	1054.70
741.01	1063.54
741.04	1056.82
741.06	1058.20
741.09	1056.92
741.11	1051.88
741.14	1065.50
741.16	1054.02
741.19	1052.86
741.21	1059.48
741.24	1060.64
741.26	1067.12
741.29	1049.12
741.32	1058.50
741.34	1060.16
741.37	1063.12
741.39	1058.20
741.42	1056.74
741.44	1058.54
741.47	1056.46
741.49	1060.92
741.52	1058.38
741.54	1054.04
741.57	1062.22
741.59	1055.32
741.62	1057.38
741.65	1059.94
741.67	1058.16
741.70	1059.62
741.72	1065.20
741.75	1061.56
741.77	1061.12
741.80	1060.60
741.82	1126.70
741.85	1068.50
741.87	1074.48
741.90	1066.50
741.92	1061.56
741.95	1069.54
741.98	1065.78
742.00	1065.64
742.03	1066.34
742.05	1077.82
742.08	1062.88
742.10	1059.86
742.13	1059.36
742.15	1068.22
742.18	1075.66
742.20	1083.80
742.23	1061.80
742.25	1063.80
742.28	1060.68
742.30	1062.84
742.33	1061.18
742.35	1070.98
742.38	1065.64
742.41	1071.70
742.43	1067.30
742.46	1069.46
742.48	1072.96
742.51	1075.62
742.53	1072.34
742.56	1077.82
742.58	1080.92
742.61	1072.02
742.63	1069.50
742.66	1069.46
742.68	1070.32
742.71	1066.32
742.73	1068.04
742.76	1072.64
742.78	1067.82
742.81	1081.30
742.83	1068.98
742.86	1068.36
742.88	1067.52
742.91	1069.04
742.93	1082.96
742.96	1081.28
742.99	1085.54
743.01	1078.72
743.04	1081.38
743.06	1078.66
743.09	1084.58
743.11	1075.24
743.14	1076.78
743.16	1073.50
743.19	1077.40
743.21	1070.34
743.24	1078.66
743.26	1076.70
743.29	1074.94
743.31	1072.88
743.34	1083.32
743.36	1075.88
743.39	1079.46
743.41	1082.06
743.44	1089.34
743.46	1089.32
743.49	1095.34
743.51	1079.44
743.54	1084.26
743.56	1077.12
743.59	1077.80
743.61	1086.76
743.64	1081.56
743.66	1080.64
743.69	1095.50
743.71	1086.20
743.74	1095.26
743.76	1093.02
743.79	1089.90
743.82	1087.62
743.84	1084.10
743.87	1083.90
743.89	1079.82
743.92	1079.88
743.94	1099.40
743.97	1093.24
743.99	1097.96
744.02	1088.88
744.04	1093.16
744.07	1098.64
744.09	1092.68
744.12	1082.20
744.14	1090.50
744.17	1085.02
744.19	1097.54
744.22	1086.10
744.24	1096.40
744.27	1091.02
744.29	1102.62
744.32	1092.36
744.34	1100.08
744.37	1096.64
744.39	1097.50
744.42	1091.74
744.44	1097.26
744.47	1095.68
744.49	1093.04
744.52	1095.12
744.54	1101.22
744.57	1099.34
744.59	1092.66
744.62	1094.72
744.64	1100.78
744.67	1093.46
744.69	1097.26
744.72	1099.48
744.74	1093.08
744.77	1102.80
744.79	1095.40
744.82	1094.58
744.84	1100.32
744.87	1098.96
744.89	1104.68
744.92	1095.44
744.94	1100.30
744.97	1098.22
744.99	1102.42
745.02	1096.34
745.04	1107.66
745.07	1099.92
745.09	1103.10
745.12	1099.94
745.14	1107.08
745.17	1110.00
745.19	1109.72
745.22	1096.10
745.24	1097.16
745.27	1108.30
745.29	1107.78
745.32	1103.42
745.34	1113.82
745.37	1108.24
745.39	1109.00
745.41	1103.38
745.44	1117.98
745.46	1112.64
745.49	1110.46
745.51	1110.14
745.54	1116.76
745.56	1107.58
745.59	1110.04
745.61	1099.22
745.64	1113.78
745.66	1113.14
745.69	1112.34
745.71	1112.34
745.74	1115.54
745.76	1114.28
745.79	1099.22
745.81	1107.76
745.84	1119.32
745.86	1112.26
745.89	1103.94
745.91	1116.24
745.94	1116.38
745.96	1118.24
745.99	1122.78
746.01	1108.68
746.04	1102.80
746.06	1112.86
746.09	1116.34
746.11	1110.88
746.14	1109.30
746.16	1115.52
746.19	1105.80
746.21	1107.00
746.23	1116.06
746.26	1110.00
746.28	1108.92
746.31	1115.38
746.33	1121.34
746.36	1106.72
746.38	1108.62
746.41	1110.86
746.43	1117.74
746.46	1122.60
746.48	1119.28
746.51	1114.42
746.53	1117.06
746.56	1113.00
746.58	1112.68
746.61	1115.84
746.63	1117.70
746.66	1120.32
746.68	1113.44
746.71	1118.84
746.73	1118.92
746.75	1126.90
746.78	1118.30
746.80	1115.78
746.83	1119.54
746.85	1114.40
746.88	1122.20
746.90	1122.40
746.93	1126.40
746.95	1126.02
746.98	1117.16
747.00	1118.58
747.03	1120.62
747.05	1121.70
747.08	1126.72
747.10	1122.36
747.13	1127.18
747.15	1128.10
747.17	1120.36
747.20	1121.18
747.22	1120.52
747.25	1126.44
747.27	1131.78
747.30	1118.30
747.32	1131.46
747.35	1127.36
747.37	1122.94
747.40	1124.76
747.42	1136.14
747.45	1122.72
747.47	1120.90
747.50	1142.18
747.52	1128.36
747.54	1123.80
747.57	1121.14
747.59	1126.06
747.62	1127.28
747.64	1126.40
747.67	1133.24
747.69	1121.26
747.72	1131.50
747.74	1116.38
747.77	1126.52
747.79	1128.30
747.82	1127.16
747.84	1133.86
747.86	1131.74
747.89	1125.68
747.91	1126.66
747.94	1116.36
747.96	1125.76
747.99	1133.70
748.01	1125.98
748.04	1126.70
748.06	1118.44
748.09	1120.92
748.11	1127.88
748.13	1129.70
748.16	1120.88
748.18	1125.26
748.21	1124.82
748.23	1123.62
748.26	1127.58
748.28	1148.06
748.31	1137.50
748.33	1134.28
748.36	1129.98
748.38	1129.44
748.40	1132.92
748.43	1132.40
748.45	1139.54
748.48	1131.08
748.50	1130.38
748.53	1122.06
748.55	1120.96
748.58	1128.14
748.60	1132.74
748.63	1120.50
748.65	1123.10
748.67	1117.34
748.70	1125.36
748.72	1136.10
748.75	1126.48
748.77	1122.56
748.80	1123.26
748.82	1126.88
748.85	1127.16
748.87	1121.48
748.89	1122.36
748.92	1126.60
748.94	1127.46
748.97	1123.12
748.99	1131.02
749.02	1123.02
749.04	1129.78
749.07	1126.34
749.09	1135.72
749.11	1129.32
749.14	1121.52
749.16	1122.92
749.19	1120.20
749.21	1120.80
749.24	1122.12
749.26	1124.50
749.29	1124.70
749.31	1126.02
749.33	1132.84
749.36	1122.00
749.38	1125.68
749.41	1125.96
749.43	1119.86
749.46	1126.74
749.48	1126.72
749.51	1124.16
749.53	1125.14
749.55	1126.64
749.58	1122.86
749.60	1121.88
749.63	1123.80
749.65	1114.08
749.68	1117.78
749.70	1121.04
749.72	1121.16
749.75	1118.76
749.77	1118.64
749.80	1120.24
749.82	1128.82
749.85	1113.40
749.87	1125.32
749.89	1129.40
749.92	1124.26
749.94	1114.58
749.97	1134.86
749.99	1119.50
750.02	1124.88
750.04	1114.06
750.07	1126.68
750.09	1119.62
750.11	1119.02
750.14	1112.84
750.16	1118.72
750.19	1116.98
750.21	1118.06
750.24	1112.96
750.26	1120.18
750.28	1107.50
750.31	1120.32
750.33	1107.56
750.36	1109.42
750.38	1108.42
750.41	1117.38
750.43	1114.54
750.45	1111.52
750.48	1109.62
750.50	1114.92
750.53	1110.18
750.55	1116.18
750.57	1118.20
750.60	1114.94
750.62	1103.32
750.65	1110.24
750.67	1106.70
750.70	1115.30
750.72	1111.08
750.74	1109.24
750.77	1110.74
750.79	1110.88
750.82	1110.20
750.84	1111.58
750.87	1117.18
750.89	1104.04
750.91	1110.22
750.94	1099.82
750.96	1103.88
750.99	1115.66
751.01	1108.70
751.03	1108.68
751.06	1104.38
751.08	1109.34
751.11	1104.78
751.13	1109.08
751.16	1110.74
751.18	1106.80
751.20	1098.78
751.23	1108.38
751.25	1101.62
751.28	1104.38
751.30	1105.12
751.33	1102.08
751.35	1113.52
751.37	1108.90
751.40	1097.52
751.42	1101.46
751.45	1111.48
751.47	1109.24
751.49	1107.50
751.52	1114.10
751.54	1104.22
751.57	1102.08
751.59	1107.88
751.61	1113.18
751.64	1108.76
751.66	1102.52
751.69	1099.56
751.71	1103.38
751.74	1111.00
751.76	1108.68
751.78	1108.22
751.81	1098.22
751.83	1098.12
751.86	1106.64
751.88	1103.02
751.90	1108.20
751.93	1105.28
751.95	1102.56
751.98	1104.42
752.00	1114.88
752.02	1119.06
752.05	1113.98
752.07	1102.36
752.10	1104.48
752.12	1104.28
752.14	1105.98
752.17	1099.48
752.19	1107.26
752.22	1096.74
752.24	1114.14
752.26	1105.60
752.29	1092.28
752.31	1105.94
752.34	1103.54
752.36	1112.96
752.38	1106.02
752.41	1106.36
752.43	1108.62
752.46	1105.58
752.48	1107.52
752.50	1108.46
752.53	1104.46
752.55	1109.84
752.58	1122.36
752.60	1108.16
752.62	1115.64
752.65	1110.20
752.67	1116.36
752.70	1111.82
752.72	1108.50
752.74	1123.18
752.77	1111.84
752.79	1107.04
752.82	1110.00
752.84	1104.46
752.86	1111.14
752.89	1112.50
752.91	1120.96
752.94	1110.48
752.96	1110.12
752.98	1102.88
753.01	1134.24
753.03	1118.16
753.06	1113.82
753.08	1104.36
753.10	1114.76
753.13	1115.44
753.15	1111.82
753.18	1111.62
753.20	1109.82
753.22	1117.10
753.25	1131.86
753.27	1121.72
753.29	1121.78
753.32	1126.32
753.34	1126.46
753.37	1129.64
753.39	1126.16
753.41	1116.00
753.44	1122.54
753.46	1115.22
753.49	1127.90
753.51	1114.36
753.53	1113.62
753.56	1120.30
753.58	1128.66
753.61	1126.56
753.63	1121.04
753.65	1128.90
753.68	1117.20
753.70	1129.42
753.72	1137.12
753.75	1123.30
753.77	1134.22
753.80	1128.64
753.82	1116.56
753.84	1130.32
753.87	1125.60
753.89	1130.24
753.91	1135.12
753.94	1129.60
753.96	1129.74
753.99	1132.48
754.01	1129.02
754.03	1134.62
754.06	1124.90
754.08	1138.64
754.11	1129.34
754.13	1128.84
754.15	1133.50
754.18	1133.66
754.20	1131.78
754.22	1136.10
754.25	1139.64
754.27	1132.22
754.30	1138.26
754.32	1128.84
754.34	1138.96
754.37	1151.66
754.39	1139.00
754.41	1128.84
754.44	1144.60
754.46	1146.28
754.49	1136.52
754.51	1137.04
754.53	1136.96
754.56	1145.34
754.58	1143.40
754.60	1146.58
754.63	1140.56
754.65	1139.08
754.68	1139.66
754.70	1144.66
754.72	1145.68
754.75	1145.40
754.77	1156.16
754.79	1138.48
754.82	1141.96
754.84	1143.16
754.86	1147.42
754.89	1146.90
754.91	1153.66
754.94	1143.80
754.96	1147.10
754.98	1160.50
755.01	1153.16
755.03	1153.84
755.05	1154.10
755.08	1163.84
755.10	1149.98
755.13	1152.02
755.15	1158.46
755.17	1156.64
755.20	1153.02
755.22	1157.56
755.24	1161.26
755.27	1157.10
755.29	1157.94
755.31	1157.56
755.34	1175.82
755.36	1174.58
755.39	1162.18
755.41	1154.42
755.43	1163.36
755.46	1168.36
755.48	1162.38
755.50	1160.40
755.53	1164.04
755.55	1159.14
755.57	1168.84
755.60	1170.58
755.62	1176.00
755.64	1167.98
755.67	1170.88
755.69	1173.04
755.72	1164.50
755.74	1170.94
755.76	1163.18
755.79	1174.00
755.81	1164.32
755.83	1176.64
755.86	1172.10
755.88	1176.18
755.90	1173.76
755.93	1177.34
755.95	1183.66
755.97	1183.00
756.00	1177.70
756.02	1165.26
756.05	1169.98
756.07	1186.22
756.09	1175.32
756.12	1187.04
756.14	1190.42
756.16	1173.22
756.19	1179.30
756.21	1178.12
756.23	1178.98
756.26	1174.36
756.28	1174.72
756.30	1180.10
756.33	1173.14
756.35	1169.06
756.37	1183.10
756.40	1173.94
756.42	1178.24
756.44	1174.62
756.47	1177.70
756.49	1176.58
756.52	1173.78
756.54	1182.42
756.56	1178.58
756.59	1176.96
756.61	1200.08
756.63	1183.28
756.66	1185.02
756.68	1180.64
756.70	1182.18
756.73	1173.04
756.75	1188.52
756.77	1174.50
756.80	1175.58
756.82	1174.00
756.84	1175.82
756.87	1191.30
756.89	1176.42
756.91	1181.30
756.94	1183.82
756.96	1185.78
756.98	1183.76
757.01	1183.90
757.03	1179.28
757.05	1180.68
757.08	1182.88
757.10	1178.28
757.12	1182.04
757.15	1175.06
757.17	1179.74
757.19	1174.84
757.22	1190.18
757.24	1182.78
757.26	1170.98
757.29	1179.38
757.31	1197.24
757.33	1191.44
757.36	1191.36
757.38	1180.98
757.40	1188.46
757.43	1179.24
757.45	1179.42
757.47	1177.12
757.50	1193.20
757.52	1202.66
757.54	1178.58
757.57	1186.36
757.59	1181.06
757.61	1178.98
757.64	1186.58
757.66	1185.54
757.68	1187.04
757.71	1177.14
757.73	1188.30
757.75	1180.78
757.78	1190.78
757.80	1178.88
757.82	1194.62
757.85	1193.32
757.87	1201.24
757.89	1189.76
757.92	1197.86
757.94	1178.58
757.96	1188.34
757.99	1192.32
758.01	1194.14
758.03	1197.56
758.06	1191.74
758.08	1189.70
758.10	1199.38
758.13	1186.00
758.15	1194.12
758.17	1196.94
758.20	1202.16
758.22	1190.94
758.24	1190.28
758.27	1196.52
758.29	1204.38
758.31	1193.10
758.34	1192.68
758.36	1191.66
758.38	1199.24
758.41	1193.84
758.43	1203.64
758.45	1198.04
758.48	1192.78
758.50	1182.24
758.52	1196.46
758.55	1194.66
758.57	1198.62
758.59	1188.94
758.61	1199.36
758.64	1207.74
758.66	1196.66
758.68	1192.44
758.71	1192.44
758.73	1201.18
758.75	1205.58
758.78	1200.34
758.80	1208.10
758.82	1207.54
758.85	1196.06
758.87	1193.40
758.89	1202.04
758.92	1204.80
758.94	1207.92
758.96	1208.18
758.99	1213.26
759.01	1219.10
759.03	1204.76
759.05	1202.72
759.08	1209.16
759.10	1206.86
759.12	1204.78
759.15	1204.64
759.17	1212.56
759.19	1193.98
759.22	1200.56
759.24	1200.42
759.26	1210.88
759.29	1198.78
759.31	1206.84
759.33	1203.96
759.36	1210.32
759.38	1211.94
759.40	1199.14
759.42	1195.02
759.45	1194.24
759.47	1208.32
759.49	1207.00
759.52	1214.02
759.54	1205.48
759.56	1202.38
759.59	1197.76
759.61	1201.56
759.63	1209.18
759.66	1213.62
759.68	1207.50
759.70	1211.02
759.72	1216.86
759.75	1195.16
759.77	1203.82
759.79	1202.72
759.82	1204.22
759.84	1211.92
759.86	1203.84
759.89	1194.66
759.91	1210.96
759.93	1209.08
759.95	1202.32
759.98	1201.46
760.00	1203.98
760.02	1197.74
760.05	1206.18
760.07	1198.10
760.09	1205.50
760.12	1212.60
760.14	1198.34
760.16	1195.14
760.18	1209.98
760.21	1196.78
760.23	1206.94
760.25	1199.58
760.28	1212.10
760.30	1200.62
760.32	1208.38
760.34	1208.08
760.37	1212.06
760.39	1211.66
760.41	1200.22
760.44	1200.74
760.46	1210.72
760.48	1210.22
760.51	1205.94
760.53	1212.28
760.55	1206.54
760.57	1212.10
760.60	1209.40
760.62	1205.60
760.64	1215.52
760.67	1218.30
760.69	1210.02
760.71	1205.00
760.73	1210.38
760.76	1203.30
760.78	1222.22
760.80	1208.24
760.83	1219.68
760.85	1211.70
760.87	1222.46
760.89	1219.34
760.92	1219.20
760.94	1202.72
760.96	1213.94
760.99	1215.70
761.01	1208.50
761.03	1210.16
761.05	1215.34
761.08	1201.50
761.10	1210.82
761.12	1214.44
761.15	1216.36
761.17	1205.26
761.19	1211.34
761.21	1202.96
761.24	1213.02
761.26	1221.38
761.28	1221.58
761.31	1220.60
761.33	1213.04
761.35	1212.46
761.37	1213.40
761.40	1211.60
761.42	1220.90
761.44	1216.70
761.47	1219.18
761.49	1216.90
761.51	1226.70
761.53	1223.04
761.56	1226.16
761.58	1219.70
761.60	1228.54
761.63	1217.30
761.65	1216.58
761.67	1214.98
761.69	1228.32
761.72	1240.94
761.74	1227.94
761.76	1226.48
761.78	1224.18
761.81	1221.46
761.83	1225.88
761.85	1231.96
761.88	1235.80
761.90	1222.30
761.92	1216.66
761.94	1230.68
761.97	1224.54
761.99	1229.88
762.01	1232.48
762.03	1229.98
762.06	1233.82
762.08	1229.76
762.10	1231.10
762.13	1231.42
762.15	1236.38
762.17	1243.62
762.19	1242.10
762.22	1230.74
762.24	1239.60
762.26	1235.96
762.28	1233.42
762.31	1237.10
762.33	1246.32
762.35	1234.48
762.38	1235.44
762.40	1227.36
762.42	1252.12
762.44	1226.72
762.47	1240.62
762.49	1238.68
762.51	1251.00
762.53	1237.56
762.56	1251.42
762.58	1235.30
762.60	1245.30
762.62	1244.46
762.65	1245.12
762.67	1238.52
762.69	1249.92
762.71	1242.50
762.74	1244.14
762.76	1249.80
762.78	1239.24
762.81	1244.50
762.83	1245.40
762.85	1243.84
762.87	1248.44
762.90	1237.60
762.92	1248.58
762.94	1258.54
762.96	1255.92
762.99	1242.40
763.01	1254.34
763.03	1249.56
763.05	1257.62
763.08	1251.68
763.10	1259.72
763.12	1255.32
763.14	1264.86
763.17	1262.32
763.19	1242.96
763.21	1254.08
763.23	1243.14
763.26	1246.48
763.28	1257.70
763.30	1250.88
763.32	1245.04
763.35	1243.02
763.37	1257.28
763.39	1251.20
763.41	1259.60
763.44	1249.40
763.46	1253.66
763.48	1245.42
763.50	1245.52
763.53	1248.42
763.55	1253.10
763.57	1248.38
763.59	1262.16
763.62	1249.26
763.64	1252.40
763.66	1251.72
763.68	1262.88
763.71	1256.86
763.73	1256.78
763.75	1248.98
763.77	1259.82
763.80	1254.68
763.82	1253.64
763.84	1253.68
763.86	1252.86
763.89	1260.32
763.91	1256.48
763.93	1252.50
763.95	1252.16
763.98	1263.38
764.00	1255.40
764.02	1248.98
764.04	1257.58
764.07	1263.18
764.09	1257.38
764.11	1256.70
764.13	1254.74
764.16	1256.10
764.18	1259.72
764.20	1256.62
764.22	1245.10
764.25	1247.88
764.27	1257.12
764.29	1248.10
764.31	1250.50
764.34	1253.90
764.36	1250.36
764.38	1245.58
764.40	1256.74
764.43	1254.00
764.45	1247.62
764.47	1250.72
764.49	1261.14
764.51	1254.58
764.54	1254.06
764.56	1242.82
764.58	1250.20
764.60	1253.38
764.63	1262.20
764.65	1249.26
764.67	1254.16
764.69	1249.20
764.72	1264.82
764.74	1256.30
764.76	1256.98
764.78	1253.06
764.81	1274.14
764.83	1254.46
764.85	1252.08
764.87	1247.54
764.89	1247.38
764.92	1252.44
764.94	1258.88
764.96	1252.06
764.98	1244.50
765.01	1241.26
765.03	1253.28
765.05	1244.08
765.07	1246.58
765.10	1243.04
765.12	1246.18
765.14	1252.36
765.16	1261.96
765.18	1249.08
765.21	1252.24
765.23	1246.00
765.25	1254.44
765.27	1253.18
765.30	1251.32
765.32	1260.54
765.34	1243.16
765.36	1248.50
765.38	1244.12
765.41	1245.50
765.43	1251.90
765.45	1244.52
765.47	1247.08
765.50	1242.06
765.52	1244.30
765.54	1233.44
765.56	1253.50
765.58	1257.52
765.61	1244.00
765.63	1244.12
765.65	1253.12
765.67	1249.50
765.70	1254.80
765.72	1243.96
765.74	1241.96
765.76	1244.22
765.78	1242.14
765.81	1243.36
765.83	1244.44
765.85	1244.58
765.87	1260.04
765.90	1234.96
765.92	1236.08
765.94	1242.10
765.96	1237.30
765.98	1234.42
766.01	1233.70
766.03	1226.66
766.05	1219.48
766.07	1219.82
766.10	1224.44
766.12	1219.16
766.14	1223.68
766.16	1215.64
766.18	1215.70
766.21	1219.12
766.23	1207.24
766.25	1211.26
766.27	1200.18
766.29	1191.84
766.32	1204.74
766.34	1204.28
766.36	1197.18
766.38	1189.82
766.40	1187.66
766.43	1184.02
766.45	1194.34
766.47	1179.32
766.49	1173.12
766.52	1179.20
766.54	1163.64
766.56	1161.14
766.58	1170.58
766.60	1167.64
766.63	1168.52
766.65	1159.32
766.67	1171.68
766.69	1159.30
766.71	1146.22
766.74	1137.40
766.76	1145.32
766.78	1153.14
766.80	1132.94
766.82	1138.96
766.85	1128.56
766.87	1128.22
766.89	1124.46
766.91	1122.38
766.93	1118.86
766.96	1116.76
766.98	1112.30
767.00	1102.48
767.02	1107.48
767.04	1102.32
767.07	1112.74
767.09	1097.00
767.11	1093.56
767.13	1088.52
767.15	1095.24
767.18	1085.80
767.20	1085.00
767.22	1078.38
767.24	1075.12
767.26	1076.26
767.29	1067.44
767.31	1066.28
767.33	1065.52
767.35	1059.58
767.37	1058.20
767.40	1054.50
767.42	1049.22
767.44	1046.10
767.46	1043.50
767.48	1044.46
767.51	1035.30
767.53	1042.12
767.55	1028.30
767.57	1026.20
767.59	1030.52
767.62	1019.62
767.64	1018.90
767.66	1013.86
767.68	1013.90
767.70	1014.04
767.73	1005.84
767.75	994.98
767.77	996.36
767.79	1006.86
767.81	994.94
767.83	995.72
767.86	983.94
767.88	984.66
767.90	989.58
767.92	986.06
767.94	967.48
767.97	972.58
767.99	960.72
768.01	961.90
768.03	956.30
768.05	953.52
768.08	949.44
768.10	948.78
768.12	949.80
768.14	945.86
768.16	944.24
768.18	941.24
768.21	935.82
768.23	939.96
768.25	929.02
768.27	927.42
768.29	932.40
768.32	924.66
768.34	914.12
768.36	916.56
768.38	915.24
768.40	910.66
768.42	914.70
768.45	909.82
768.47	902.16
768.49	903.22
768.51	902.18
768.53	890.56
768.56	889.98
768.58	905.34
768.60	884.12
768.62	877.78
768.64	885.14
768.66	876.20
768.69	871.84
768.71	873.96
768.73	878.38
768.75	867.34
768.77	864.80
768.80	858.58
768.82	855.46
768.84	851.82
768.86	848.56
768.88	849.54
768.90	862.46
768.93	841.76
768.95	845.54
768.97	844.38
768.99	848.32
769.01	843.80
769.03	830.84
769.06	833.18
769.08	832.22
769.10	819.82
769.12	830.76
769.14	817.38
769.16	823.86
769.19	820.18
769.21	823.02
769.23	814.64
>>>>>End Processed Spectral Data<<<<<
